	 纬度(deg)	          经度(deg)		     高度(m)		 纬度(deg)		       经度(deg)	     高度(m)
70.032691448589546	-148.082951862372060	1994.968	70.024298967664322	-148.082943060096370	1995.906
70.032691000550116	-148.082951861901960	1994.968	70.024272372768891	-148.082943032213790	1995.909
70.032690552510672	-148.082951861431870	1994.968	70.024245777873404	-148.082943004331270	1995.912
70.032690104471243	-148.082951860961740	1994.968	70.024219182977859	-148.082942976448810	1995.915
70.032689656431813	-148.082951860491650	1994.968	70.024192588082258	-148.082942948566430	1995.918
70.032689208392384	-148.082951860021550	1994.968	70.024165993932471	-148.082942920684700	1995.921
70.032688760352940	-148.082951859551460	1994.968	70.024139402766124	-148.082942892805530	1995.923
70.032688312313510	-148.082951859081330	1994.968	70.024112811599721	-148.082942864926390	1995.926
70.032687864274081	-148.082951858611270	1994.968	70.024086220436701	-148.082942837048050	1995.929
70.032687416234651	-148.082951858141170	1994.968	70.024059629274475	-148.082942809169940	1995.932
70.032686968195208	-148.082951857671080	1994.968	70.024033039605683	-148.082942781293470	1995.935
70.032686520155778	-148.082951857200950	1994.968	70.024006452177034	-148.082942753419420	1995.938
70.032686072116363	-148.082951856730860	1994.968	70.023979864748298	-148.082942725545420	1995.941
70.032685624076919	-148.082951856260790	1994.968	70.023953277319535	-148.082942697671480	1995.944
70.032685176037489	-148.082951855790670	1994.968	70.023926689890715	-148.082942669797660	1995.947
70.032684727998046	-148.082951855320540	1994.968	70.023900106942236	-148.082942641928580	1995.950
70.032684279958630	-148.082951854850480	1994.969	70.023873526980623	-148.082942614062720	1995.953
70.032683831919201	-148.082951854380380	1994.969	70.023846946272243	-148.082942586196110	1995.956
70.032683383879771	-148.082951853910260	1994.969	70.023820362576856	-148.082942558326470	1995.959
70.032682935840327	-148.082951853440190	1994.969	70.023793778881426	-148.082942530456850	1995.962
70.032682487800898	-148.082951852970070	1994.969	70.023767201159799	-148.082942502593620	1995.965
70.032682039761468	-148.082951852499970	1994.969	70.023740624931591	-148.082942474732020	1995.968
70.032681591722039	-148.082951852029880	1994.969	70.023714047209850	-148.082942446868940	1995.971
70.032681143682595	-148.082951851559780	1994.969	70.023687467247868	-148.082942419003560	1995.974
70.032680695643165	-148.082951851089690	1994.969	70.023660887285814	-148.082942391138260	1995.977
70.032680247603736	-148.082951850619590	1994.969	70.023634314786719	-148.082942363279980	1995.980
70.032679799564306	-148.082951850149500	1994.969	70.023607742287552	-148.082942335421790	1995.982
70.032679351524862	-148.082951849679400	1994.969	70.023581169790930	-148.082942307564200	1995.985
70.032678903485433	-148.082951849209310	1994.969	70.023554597295984	-148.082942279707030	1995.988
70.032678455446018	-148.082951848739190	1994.969	70.023528024800996	-148.082942251849890	1995.991
70.032678007406574	-148.082951848269090	1994.969	70.023501452305950	-148.082942223992830	1995.994
70.032677559367130	-148.082951847799000	1994.969	70.023474879810848	-148.082942196135830	1995.997
70.032677111327700	-148.082951847328900	1994.969	70.023448310302626	-148.082942168282050	1996.000
70.032676663288271	-148.082951846858800	1994.969	70.023421741541071	-148.082942140429140	1996.003
70.032676215248841	-148.082951846388710	1994.969	70.023395174272949	-148.082942112577850	1996.006
70.032675767209426	-148.082951845918610	1994.969	70.023368609244955	-148.082942084728980	1996.009
70.032675319169996	-148.082951845448520	1994.970	70.023342044216918	-148.082942056880200	1996.012
70.032674871130553	-148.082951844978420	1994.970	70.023315479188810	-148.082942029031470	1996.015
70.032674423091109	-148.082951844508300	1994.970	70.023288914160659	-148.082942001182800	1996.018
70.032673975051694	-148.082951844038230	1994.970	70.023262351370036	-148.082941973336030	1996.021
70.032673527012236	-148.082951843568140	1994.970	70.023235790071070	-148.082941945490570	1996.024
70.032673078972820	-148.082951843098020	1994.970	70.023209229519651	-148.082941917646170	1996.027
70.032672630933376	-148.082951842627950	1994.970	70.023182671958608	-148.082941889805620	1996.030
70.032672182893961	-148.082951842157850	1994.970	70.023156114397494	-148.082941861965110	1996.033
70.032671734854503	-148.082951841687730	1994.970	70.023129556836352	-148.082941834124740	1996.036
70.032671286815088	-148.082951841217610	1994.970	70.023102999275139	-148.082941806284400	1996.039
70.032670838775658	-148.082951840747540	1994.970	70.023076441713869	-148.082941778444170	1996.042
70.032670390736229	-148.082951840277450	1994.970	70.023049884152542	-148.082941750603960	1996.045
70.032669942696785	-148.082951839807320	1994.970	70.023023326591172	-148.082941722763850	1996.048
70.032669494657355	-148.082951839337260	1994.970	70.022996776497067	-148.082941694931660	1996.051
